TITLE	231114_20mM_HEPES_10mm-cuvette-abs
DATA TYPE	
ORIGIN	JASCO
OWNER	
DATE	23/11/14
TIME	16:13:06
SPECTROMETER/DATA SYSTEM	
LOCALE	1033
RESOLUTION	
DELTAX	-0.1
XUNITS	NANOMETERS
YUNITS	ARBITRARY UNITS
FIRSTX	  350.0000
LASTX	  200.0000
NPOINTS	    1501
FIRSTY	     0.93431
MAXY	     4.95016
MINY	    -5.17613
XYDATA
350.0000	0.934307	0.770718
349.9000	0.943207	0.770647
349.8000	0.949282	0.770584
349.7000	0.958911	0.77055
349.6000	0.968243	0.770511
349.5000	0.970585	0.770474
349.4000	0.967887	0.770424
349.3000	0.962708	0.770352
349.2000	0.960574	0.77028
349.1000	0.962423	0.770182
349.0000	0.963748	0.770117
348.9000	0.962665	0.770053
348.8000	0.958561	0.769994
348.7000	0.966159	0.769939
348.6000	0.979547	0.769872
348.5000	1.00248	0.769809
348.4000	1.02507	0.769732
348.3000	1.04873	0.769675
348.2000	1.07083	0.769627
348.1000	1.0866	0.769542
348.0000	1.09509	0.769475
347.9000	1.10332	0.769404
347.8000	1.1059	0.769312
347.7000	1.1105	0.769243
347.6000	1.11844	0.769179
347.5000	1.12952	0.769092
347.4000	1.13701	0.768988
347.3000	1.14475	0.768907
347.2000	1.15558	0.768809
347.1000	1.1673	0.7687
347.0000	1.17264	0.768634
346.9000	1.17031	0.768537
346.8000	1.16536	0.768419
346.7000	1.16552	0.768304
346.6000	1.16515	0.768213
346.5000	1.16435	0.768099
346.4000	1.15012	0.76796
346.3000	1.1335	0.767856
346.2000	1.12196	0.767733
346.1000	1.11493	0.767603
346.0000	1.10709	0.767489
345.9000	1.09662	0.767349
345.8000	1.09621	0.767201
345.7000	1.09937	0.767056
345.6000	1.09818	0.766906
345.5000	1.09909	0.76675
345.4000	1.09961	0.766592
345.3000	1.09616	0.76644
345.2000	1.08942	0.766267
345.1000	1.08146	0.766092
345.0000	1.08017	0.76594
344.9000	1.07451	0.765773
344.8000	1.07221	0.765607
344.7000	1.06952	0.765424
344.6000	1.06477	0.765256
344.5000	1.05412	0.765083
344.4000	1.04308	0.764883
344.3000	1.03594	0.764709
344.2000	1.0245	0.764542
344.1000	1.01162	0.764348
344.0000	1.00726	0.764173
343.9000	1.00238	0.764001
343.8000	0.998428	0.763798
343.7000	0.993783	0.76358
343.6000	0.991322	0.763404
343.5000	0.984403	0.763206
343.4000	0.969816	0.762995
343.3000	0.951923	0.762801
343.2000	0.931732	0.762585
343.1000	0.912713	0.762356
343.0000	0.893126	0.76215
342.9000	0.879129	0.761928
342.8000	0.875214	0.761706
342.7000	0.874359	0.761521
342.6000	0.873776	0.76131
342.5000	0.872332	0.761086
342.4000	0.868796	0.760904
342.3000	0.86246	0.760693
342.2000	0.858953	0.760477
342.1000	0.84887	0.760223
342.0000	0.837583	0.759988
341.9000	0.828084	0.759757
341.8000	0.818506	0.7595
341.7000	0.80449	0.759261
341.6000	0.787074	0.759029
341.5000	0.773118	0.758774
341.4000	0.765303	0.758544
341.3000	0.761965	0.758321
341.2000	0.756426	0.758075
341.1000	0.754171	0.757846
341.0000	0.752059	0.757623
340.9000	0.744895	0.757378
340.8000	0.733142	0.757151
340.7000	0.718742	0.756921
340.6000	0.706022	0.756679
340.5000	0.697693	0.756455
340.4000	0.693681	0.756239
340.3000	0.699478	0.756008
340.2000	0.713638	0.755803
340.1000	0.721182	0.75558
340.0000	0.724416	0.755339
339.9000	0.7261	0.755103
339.8000	0.723472	0.754865
339.7000	0.73367	0.754627
339.6000	0.743591	0.754397
339.5000	0.755081	0.754176
339.4000	0.760224	0.753944
339.3000	0.764475	0.753712
339.2000	0.763396	0.753493
339.1000	0.755056	0.753255
339.0000	0.750406	0.753022
338.9000	0.742306	0.752798
338.8000	0.735999	0.752564
338.7000	0.740609	0.752316
338.6000	0.746556	0.752093
338.5000	0.754786	0.751874
338.4000	0.753482	0.751633
338.3000	0.747107	0.751405
338.2000	0.740951	0.751176
338.1000	0.73453	0.75094
338.0000	0.725167	0.750707
337.9000	0.721116	0.75049
337.8000	0.724139	0.75026
337.7000	0.726539	0.750052
337.6000	0.732407	0.749832
337.5000	0.738868	0.749596
337.4000	0.747146	0.749397
337.3000	0.752195	0.749181
337.2000	0.761638	0.748959
337.1000	0.770173	0.748772
337.0000	0.775613	0.748556
336.9000	0.783446	0.748332
336.8000	0.794348	0.748143
336.7000	0.805099	0.747934
336.6000	0.810413	0.747714
336.5000	0.819461	0.74751
336.4000	0.831642	0.747303
336.3000	0.845962	0.747106
336.2000	0.854197	0.746911
336.1000	0.862396	0.746705
336.0000	0.867056	0.746503
335.9000	0.871888	0.746314
335.8000	0.878917	0.746116
335.7000	0.879702	0.745899
335.6000	0.881677	0.745702
335.5000	0.878199	0.745504
335.4000	0.877436	0.745323
335.3000	0.871574	0.745126
335.2000	0.8604	0.744927
335.1000	0.851344	0.744739
335.0000	0.838149	0.744548
334.9000	0.827187	0.744332
334.8000	0.812699	0.744136
334.7000	0.799375	0.743947
334.6000	0.78949	0.743745
334.5000	0.784031	0.743565
334.4000	0.781017	0.743377
334.3000	0.777162	0.743178
334.2000	0.771078	0.743006
334.1000	0.770629	0.74282
334.0000	0.773669	0.742634
333.9000	0.770241	0.742461
333.8000	0.769437	0.742276
333.7000	0.764813	0.742075
333.6000	0.755351	0.7419
333.5000	0.747334	0.741719
333.4000	0.747249	0.741572
333.3000	0.746644	0.741398
333.2000	0.751921	0.741217
333.1000	0.750846	0.74105
333.0000	0.739717	0.74087
332.9000	0.727387	0.74069
332.8000	0.714516	0.74052
332.7000	0.707869	0.740345
332.6000	0.702569	0.740154
332.5000	0.697046	0.739984
332.4000	0.692716	0.739823
332.3000	0.691217	0.739646
332.2000	0.691086	0.739482
332.1000	0.68354	0.73931
332.0000	0.676849	0.739153
331.9000	0.671559	0.739003
331.8000	0.66602	0.738831
331.7000	0.668346	0.738682
331.6000	0.675952	0.738527
331.5000	0.677348	0.738362
331.4000	0.67427	0.73822
331.3000	0.673767	0.738057
331.2000	0.67479	0.73788
331.1000	0.672303	0.73772
331.0000	0.67051	0.737554
330.9000	0.662488	0.737417
330.8000	0.643398	0.73725
330.7000	0.622372	0.737064
330.6000	0.606254	0.7369
330.5000	0.589767	0.736732
330.4000	0.576567	0.736568
330.3000	0.567113	0.736416
330.2000	0.555135	0.736253
330.1000	0.548336	0.736077
330.0000	0.545743	0.735927
329.9000	0.545372	0.735785
329.8000	0.543081	0.735644
329.7000	0.53503	0.735487
329.6000	0.520996	0.735312
329.5000	0.503489	0.735155
329.4000	0.483348	0.734999
329.3000	0.470272	0.734826
329.2000	0.454998	0.734676
329.1000	0.435075	0.734505
329.0000	0.419941	0.73435
328.9000	0.404781	0.734167
328.8000	0.394433	0.733983
328.7000	0.380695	0.733829
328.6000	0.368545	0.733664
328.5000	0.358677	0.733486
328.4000	0.352327	0.733315
328.3000	0.356033	0.733142
328.2000	0.360907	0.733005
328.1000	0.368355	0.732854
328.0000	0.373443	0.732686
327.9000	0.376226	0.73252
327.8000	0.376583	0.732347
327.7000	0.374388	0.73218
327.6000	0.370023	0.732011
327.5000	0.37377	0.731849
327.4000	0.373395	0.731681
327.3000	0.378462	0.731513
327.2000	0.384849	0.731333
327.1000	0.386036	0.731158
327.0000	0.393129	0.730967
326.9000	0.404926	0.730786
326.8000	0.409981	0.730601
326.7000	0.412842	0.730395
326.6000	0.409896	0.730203
326.5000	0.401496	0.729983
326.4000	0.403711	0.72978
326.3000	0.408542	0.729562
326.2000	0.417895	0.729326
326.1000	0.421099	0.729114
326.0000	0.426309	0.728888
325.9000	0.434513	0.728675
325.8000	0.442227	0.728434
325.7000	0.449963	0.728184
325.6000	0.456325	0.727936
325.5000	0.462357	0.727678
325.4000	0.464308	0.727426
325.3000	0.45896	0.727154
325.2000	0.459071	0.726891
325.1000	0.46047	0.726646
325.0000	0.456007	0.726401
324.9000	0.452158	0.726158
324.8000	0.454937	0.725915
324.7000	0.457656	0.725667
324.6000	0.45665	0.725452
324.5000	0.456623	0.725251
324.4000	0.463058	0.725066
324.3000	0.479537	0.724889
324.2000	0.501428	0.724705
324.1000	0.526114	0.724562
324.0000	0.547597	0.724401
323.9000	0.56251	0.724249
323.8000	0.575049	0.724079
323.7000	0.583445	0.723897
323.6000	0.588548	0.723726
323.5000	0.601642	0.72355
323.4000	0.604615	0.723388
323.3000	0.602568	0.723201
323.2000	0.599746	0.723013
323.1000	0.600116	0.722832
323.0000	0.606244	0.722652
322.9000	0.616716	0.722477
322.8000	0.625274	0.72229
322.7000	0.632411	0.722096
322.6000	0.63324	0.721916
322.5000	0.632999	0.721719
322.4000	0.639961	0.721538
322.3000	0.646316	0.721375
322.2000	0.656444	0.721234
322.1000	0.666104	0.721085
322.0000	0.673111	0.720919
321.9000	0.683885	0.720767
321.8000	0.699652	0.720612
321.7000	0.712546	0.720471
321.6000	0.722171	0.720317
321.5000	0.725458	0.720138
321.4000	0.725444	0.719969
321.3000	0.726111	0.719803
321.2000	0.720507	0.719636
321.1000	0.719987	0.719471
321.0000	0.729268	0.719338
320.9000	0.738382	0.719199
320.8000	0.743207	0.719052
320.7000	0.746381	0.718911
320.6000	0.744388	0.718762
320.5000	0.740689	0.718624
320.4000	0.737092	0.718501
320.3000	0.734743	0.718382
320.2000	0.733857	0.718256
320.1000	0.734178	0.718123
320.0000	0.735548	0.718009
319.9000	0.739641	0.717894
319.8000	0.745549	0.717796
319.7000	0.748655	0.71769
319.6000	0.749434	0.717601
319.5000	0.743958	0.717492
319.4000	0.736081	0.717385
319.3000	0.726145	0.717289
319.2000	0.718728	0.717193
319.1000	0.708245	0.717114
319.0000	0.697866	0.717033
318.9000	0.688604	0.716983
318.8000	0.67786	0.716929
318.7000	0.673537	0.716894
318.6000	0.670669	0.716848
318.5000	0.670405	0.716791
318.4000	0.678574	0.716748
318.3000	0.689268	0.716684
318.2000	0.696623	0.716623
318.1000	0.698714	0.716547
318.0000	0.699238	0.716461
317.9000	0.697873	0.716355
317.8000	0.691253	0.716216
317.7000	0.674203	0.716071
317.6000	0.65483	0.715913
317.5000	0.637135	0.715759
317.4000	0.618438	0.715587
317.3000	0.601558	0.715426
317.2000	0.581741	0.715261
317.1000	0.564363	0.715107
317.0000	0.549701	0.714945
316.9000	0.534838	0.714796
316.8000	0.523236	0.714639
316.7000	0.518378	0.71448
316.6000	0.516526	0.714323
316.5000	0.51559	0.714168
316.4000	0.514403	0.714013
316.3000	0.51669	0.713856
316.2000	0.516305	0.713696
316.1000	0.518224	0.713528
316.0000	0.517872	0.713362
315.9000	0.522737	0.713191
315.8000	0.532095	0.713028
315.7000	0.534636	0.712847
315.6000	0.541989	0.712649
315.5000	0.549049	0.712465
315.4000	0.555551	0.712262
315.3000	0.565096	0.712085
315.2000	0.567085	0.711898
315.1000	0.563333	0.711723
315.0000	0.554415	0.711527
314.9000	0.552298	0.711359
314.8000	0.545245	0.711189
314.7000	0.539992	0.710999
314.6000	0.536074	0.710829
314.5000	0.536488	0.710672
314.4000	0.535795	0.710513
314.3000	0.532134	0.71034
314.2000	0.537713	0.710188
314.1000	0.539745	0.710041
314.0000	0.542831	0.709914
313.9000	0.548588	0.709772
313.8000	0.554176	0.709641
313.7000	0.558734	0.709498
313.6000	0.552819	0.709384
313.5000	0.546975	0.709256
313.4000	0.539745	0.709143
313.3000	0.535525	0.709018
313.2000	0.533498	0.708905
313.1000	0.532275	0.708793
313.0000	0.530547	0.708695
312.9000	0.530187	0.708599
312.8000	0.529079	0.708514
312.7000	0.527697	0.708418
312.6000	0.526471	0.708319
312.5000	0.524441	0.70822
312.4000	0.521905	0.708129
312.3000	0.524403	0.708038
312.2000	0.5298	0.707927
312.1000	0.536576	0.707838
312.0000	0.542124	0.70773
311.9000	0.544255	0.707642
311.8000	0.538296	0.707533
311.7000	0.526985	0.707421
311.6000	0.516851	0.707334
311.5000	0.51058	0.707238
311.4000	0.513685	0.707159
311.3000	0.519724	0.70709
311.2000	0.532662	0.707019
311.1000	0.541827	0.706956
311.0000	0.546767	0.706893
310.9000	0.553618	0.706837
310.8000	0.559477	0.706783
310.7000	0.564217	0.706715
310.6000	0.571241	0.706662
310.5000	0.578355	0.706598
310.4000	0.585612	0.706532
310.3000	0.59408	0.70648
310.2000	0.598119	0.706423
310.1000	0.592706	0.706379
310.0000	0.592098	0.706323
309.9000	0.587255	0.706285
309.8000	0.580114	0.706242
309.7000	0.57431	0.706223
309.6000	0.568191	0.706222
309.5000	0.565732	0.706187
309.4000	0.569227	0.70618
309.3000	0.571371	0.706174
309.2000	0.569898	0.706163
309.1000	0.569643	0.706165
309.0000	0.569793	0.706167
308.9000	0.566093	0.706171
308.8000	0.561164	0.706176
308.7000	0.557609	0.706193
308.6000	0.554824	0.706195
308.5000	0.55241	0.706211
308.4000	0.55295	0.706216
308.3000	0.555974	0.70625
308.2000	0.556628	0.706252
308.1000	0.560444	0.706282
308.0000	0.563131	0.706314
307.9000	0.568296	0.706326
307.8000	0.565514	0.706353
307.7000	0.559863	0.706352
307.6000	0.555586	0.706373
307.5000	0.544174	0.706361
307.4000	0.531811	0.706342
307.3000	0.524094	0.706314
307.2000	0.520901	0.706307
307.1000	0.51747	0.706295
307.0000	0.513699	0.706277
306.9000	0.515952	0.706263
306.8000	0.512333	0.70627
306.7000	0.512459	0.706239
306.6000	0.51158	0.70624
306.5000	0.510631	0.706239
306.4000	0.510444	0.706247
306.3000	0.512146	0.706234
306.2000	0.5215	0.706236
306.1000	0.534471	0.706229
306.0000	0.542586	0.706229
305.9000	0.555141	0.706262
305.8000	0.564907	0.706268
305.7000	0.571693	0.706285
305.6000	0.572093	0.706279
305.5000	0.569519	0.706306
305.4000	0.573309	0.706338
305.3000	0.573116	0.706373
305.2000	0.573744	0.706369
305.1000	0.574793	0.706411
305.0000	0.575193	0.706423
304.9000	0.574632	0.706439
304.8000	0.572709	0.706482
304.7000	0.563967	0.706497
304.6000	0.554649	0.706535
304.5000	0.549788	0.706562
304.4000	0.55542	0.706599
304.3000	0.565729	0.706634
304.2000	0.573247	0.706667
304.1000	0.584544	0.706708
304.0000	0.595507	0.706752
303.9000	0.597349	0.706795
303.8000	0.598002	0.706848
303.7000	0.599061	0.706876
303.6000	0.599378	0.706912
303.5000	0.60306	0.706938
303.4000	0.607637	0.706954
303.3000	0.610982	0.707001
303.2000	0.615818	0.707058
303.1000	0.620338	0.707112
303.0000	0.619712	0.707139
302.9000	0.626419	0.707179
302.8000	0.632681	0.707251
302.7000	0.638777	0.707308
302.6000	0.641585	0.707353
302.5000	0.646191	0.707394
302.4000	0.643376	0.707433
302.3000	0.638911	0.707481
302.2000	0.63185	0.707518
302.1000	0.627862	0.707546
302.0000	0.625114	0.707586
301.9000	0.623337	0.707619
301.8000	0.621608	0.707653
301.7000	0.618617	0.707693
301.6000	0.614556	0.707713
301.5000	0.618263	0.707772
301.4000	0.625767	0.707796
301.3000	0.627626	0.707828
301.2000	0.623149	0.70785
301.1000	0.615673	0.707843
301.0000	0.605594	0.707838
300.9000	0.598274	0.707825
300.8000	0.596143	0.707852
300.7000	0.593271	0.707853
300.6000	0.582499	0.707855
300.5000	0.573327	0.70785
300.4000	0.570805	0.707836
300.3000	0.565848	0.707852
300.2000	0.558938	0.707833
300.1000	0.551874	0.707811
300.0000	0.549315	0.707808
299.9000	0.547527	0.707787
299.8000	0.549592	0.707752
299.7000	0.552586	0.707726
299.6000	0.552166	0.707701
299.5000	0.543968	0.707697
299.4000	0.535219	0.707681
299.3000	0.527451	0.70765
299.2000	0.517762	0.707635
299.1000	0.516004	0.707613
299.0000	0.515971	0.70758
298.9000	0.519639	0.707568
298.8000	0.520865	0.707514
298.7000	0.513448	0.707434
298.6000	0.508956	0.707382
298.5000	0.502785	0.707339
298.4000	0.495022	0.707264
298.3000	0.487499	0.707205
298.2000	0.487834	0.707128
298.1000	0.487121	0.707055
298.0000	0.487919	0.706972
297.9000	0.492032	0.706898
297.8000	0.495233	0.706848
297.7000	0.495916	0.706774
297.6000	0.500246	0.706708
297.5000	0.505038	0.706648
297.4000	0.510033	0.706559
297.3000	0.519059	0.706496
297.2000	0.531498	0.706408
297.1000	0.536103	0.706323
297.0000	0.538085	0.706244
296.9000	0.538598	0.706171
296.8000	0.539526	0.706101
296.7000	0.541675	0.706039
296.6000	0.540172	0.70596
296.5000	0.538691	0.705857
296.4000	0.538346	0.705747
296.3000	0.533765	0.70566
296.2000	0.524599	0.705555
296.1000	0.515102	0.705451
296.0000	0.508955	0.705359
295.9000	0.502888	0.705276
295.8000	0.497984	0.705186
295.7000	0.499179	0.705097
295.6000	0.498569	0.705013
295.5000	0.501305	0.704932
295.4000	0.496597	0.704833
295.3000	0.490546	0.70472
295.2000	0.487955	0.704623
295.1000	0.485358	0.704511
295.0000	0.486815	0.704389
294.9000	0.480508	0.704268
294.8000	0.4661	0.704121
294.7000	0.456786	0.703966
294.6000	0.454094	0.703845
294.5000	0.448632	0.703695
294.4000	0.450865	0.70355
294.3000	0.454483	0.703399
294.2000	0.458454	0.703197
294.1000	0.467063	0.702996
294.0000	0.479409	0.702775
293.9000	0.489729	0.702545
293.8000	0.495071	0.702311
293.7000	0.49394	0.70207
293.6000	0.497427	0.701805
293.5000	0.501872	0.701585
293.4000	0.509696	0.70139
293.3000	0.512022	0.701196
293.2000	0.51356	0.701051
293.1000	0.509681	0.700938
293.0000	0.505472	0.700818
292.9000	0.500563	0.700719
292.8000	0.502412	0.70063
292.7000	0.507997	0.700568
292.6000	0.515888	0.700507
292.5000	0.519999	0.700427
292.4000	0.522357	0.70038
292.3000	0.520807	0.700346
292.2000	0.517423	0.700286
292.1000	0.519555	0.700236
292.0000	0.524024	0.700213
291.9000	0.531475	0.700174
291.8000	0.541323	0.700152
291.7000	0.551992	0.700116
291.6000	0.560581	0.700093
291.5000	0.562022	0.700065
291.4000	0.570641	0.700039
291.3000	0.575829	0.70002
291.2000	0.574213	0.699976
291.1000	0.572401	0.699945
291.0000	0.575396	0.699899
290.9000	0.5787	0.699856
290.8000	0.578411	0.699805
290.7000	0.580106	0.699771
290.6000	0.584072	0.699724
290.5000	0.58862	0.699693
290.4000	0.591769	0.699661
290.3000	0.593519	0.699658
290.2000	0.596981	0.699616
290.1000	0.604316	0.699596
290.0000	0.611684	0.699559
289.9000	0.619459	0.699519
289.8000	0.62704	0.699505
289.7000	0.641275	0.69949
289.6000	0.660717	0.699472
289.5000	0.68019	0.699452
289.4000	0.700497	0.699442
289.3000	0.71223	0.699421
289.2000	0.726673	0.699407
289.1000	0.736975	0.699391
289.0000	0.745808	0.69936
288.9000	0.756522	0.699339
288.8000	0.762354	0.699323
288.7000	0.768887	0.699314
288.6000	0.772472	0.699302
288.5000	0.7766	0.699281
288.4000	0.779042	0.699282
288.3000	0.784558	0.699291
288.2000	0.797535	0.699313
288.1000	0.812536	0.699338
288.0000	0.82455	0.699369
287.9000	0.830341	0.699405
287.8000	0.838634	0.699463
287.7000	0.839785	0.699522
287.6000	0.834798	0.699588
287.5000	0.826254	0.699685
287.4000	0.815105	0.699806
287.3000	0.804623	0.699956
287.2000	0.790932	0.700093
287.1000	0.779163	0.700243
287.0000	0.761925	0.700387
286.9000	0.746359	0.700533
286.8000	0.73497	0.70066
286.7000	0.725126	0.70077
286.6000	0.719722	0.700866
286.5000	0.716494	0.700922
286.4000	0.713446	0.700953
286.3000	0.710403	0.700967
286.2000	0.709424	0.700987
286.1000	0.703899	0.700981
286.0000	0.696695	0.700962
285.9000	0.681485	0.700939
285.8000	0.670031	0.700917
285.7000	0.658237	0.700868
285.6000	0.651612	0.700848
285.5000	0.646802	0.700829
285.4000	0.639164	0.700823
285.3000	0.635252	0.700791
285.2000	0.628063	0.700765
285.1000	0.62309	0.700743
285.0000	0.6183	0.700733
284.9000	0.616584	0.700723
284.8000	0.617817	0.700714
284.7000	0.611748	0.700699
284.6000	0.60694	0.700677
284.5000	0.606743	0.700661
284.4000	0.603726	0.700639
284.3000	0.597577	0.70064
284.2000	0.58877	0.700639
284.1000	0.575227	0.700645
284.0000	0.560312	0.700649
283.9000	0.546088	0.700633
283.8000	0.535041	0.700629
283.7000	0.524935	0.700626
283.6000	0.517339	0.700595
283.5000	0.513092	0.700581
283.4000	0.507716	0.70057
283.3000	0.504216	0.700579
283.2000	0.499415	0.700573
283.1000	0.491006	0.700564
283.0000	0.468606	0.70054
282.9000	0.448421	0.70052
282.8000	0.428753	0.700511
282.7000	0.406824	0.700486
282.6000	0.388787	0.700479
282.5000	0.371252	0.700485
282.4000	0.356306	0.700496
282.3000	0.340736	0.700512
282.2000	0.326195	0.700521
282.1000	0.314881	0.700534
282.0000	0.302112	0.700549
281.9000	0.293613	0.700565
281.8000	0.28024	0.700578
281.7000	0.271926	0.700605
281.6000	0.263663	0.700627
281.5000	0.255793	0.700664
281.4000	0.249291	0.700705
281.3000	0.246019	0.700745
281.2000	0.242195	0.700778
281.1000	0.240355	0.70081
281.0000	0.243219	0.700858
280.9000	0.244522	0.700896
280.8000	0.249778	0.700936
280.7000	0.253854	0.700977
280.6000	0.260548	0.701014
280.5000	0.268454	0.701069
280.4000	0.281559	0.701138
280.3000	0.298591	0.701212
280.2000	0.313768	0.701289
280.1000	0.320104	0.701346
280.0000	0.317273	0.701399
279.9000	0.309612	0.701462
279.8000	0.304744	0.701532
279.7000	0.301333	0.701597
279.6000	0.301973	0.701674
279.5000	0.305235	0.701738
279.4000	0.30792	0.701805
279.3000	0.309367	0.701877
279.2000	0.31005	0.701947
279.1000	0.316439	0.702035
279.0000	0.327872	0.702121
278.9000	0.336504	0.702217
278.8000	0.344779	0.702324
278.7000	0.356182	0.702433
278.6000	0.363585	0.702541
278.5000	0.372559	0.702662
278.4000	0.378236	0.702772
278.3000	0.378643	0.702879
278.2000	0.375522	0.70299
278.1000	0.371845	0.703105
278.0000	0.366917	0.703228
277.9000	0.360754	0.703358
277.8000	0.351842	0.703478
277.7000	0.33761	0.703614
277.6000	0.324226	0.703727
277.5000	0.316658	0.703861
277.4000	0.313564	0.703988
277.3000	0.311248	0.704127
277.2000	0.303398	0.704282
277.1000	0.301222	0.704435
277.0000	0.304979	0.704597
276.9000	0.308176	0.704775
276.8000	0.302289	0.704935
276.7000	0.294359	0.705094
276.6000	0.289888	0.705257
276.5000	0.286135	0.705432
276.4000	0.287339	0.705614
276.3000	0.299498	0.705814
276.2000	0.302646	0.706012
276.1000	0.30771	0.70621
276.0000	0.316794	0.706415
275.9000	0.325799	0.70661
275.8000	0.335409	0.706817
275.7000	0.342905	0.707018
275.6000	0.350746	0.707232
275.5000	0.363819	0.707466
275.4000	0.378008	0.707698
275.3000	0.384882	0.707925
275.2000	0.390145	0.708167
275.1000	0.394339	0.708411
275.0000	0.397286	0.708647
274.9000	0.39722	0.708879
274.8000	0.399559	0.709116
274.7000	0.404748	0.709372
274.6000	0.405691	0.709624
274.5000	0.408517	0.709885
274.4000	0.410677	0.710153
274.3000	0.41031	0.71044
274.2000	0.408939	0.71073
274.1000	0.403645	0.711016
274.0000	0.406407	0.711328
273.9000	0.413167	0.711648
273.8000	0.419657	0.71194
273.7000	0.422845	0.712241
273.6000	0.420873	0.712548
273.5000	0.417495	0.712864
273.4000	0.421835	0.713198
273.3000	0.427903	0.713542
273.2000	0.434177	0.713892
273.1000	0.439483	0.714254
273.0000	0.444904	0.714615
272.9000	0.436803	0.714977
272.8000	0.427956	0.715367
272.7000	0.425047	0.715758
272.6000	0.433157	0.716184
272.5000	0.442106	0.716619
272.4000	0.44215	0.717066
272.3000	0.439079	0.717498
272.2000	0.43772	0.717937
272.1000	0.433388	0.718369
272.0000	0.436442	0.718822
271.9000	0.443788	0.719288
271.8000	0.45057	0.719768
271.7000	0.45716	0.720264
271.6000	0.46528	0.72076
271.5000	0.469869	0.721267
271.4000	0.47919	0.721784
271.3000	0.494909	0.722316
271.2000	0.51131	0.722848
271.1000	0.531074	0.7234
271.0000	0.550757	0.723953
270.9000	0.56717	0.724527
270.8000	0.58376	0.725109
270.7000	0.597654	0.725692
270.6000	0.606465	0.726293
270.5000	0.614054	0.726891
270.4000	0.618883	0.727507
270.3000	0.622914	0.728131
270.2000	0.623608	0.728757
270.1000	0.628299	0.729389
270.0000	0.625199	0.730038
269.9000	0.61559	0.730686
269.8000	0.611108	0.731353
269.7000	0.607276	0.732035
269.6000	0.60451	0.732713
269.5000	0.610799	0.73341
269.4000	0.621398	0.734118
269.3000	0.629748	0.734837
269.2000	0.630128	0.735562
269.1000	0.62962	0.736294
269.0000	0.629294	0.737043
268.9000	0.628735	0.7378
268.8000	0.622137	0.738555
268.7000	0.619278	0.739325
268.6000	0.620229	0.740128
268.5000	0.625788	0.740936
268.4000	0.635837	0.741767
268.3000	0.640737	0.7426
268.2000	0.645877	0.74343
268.1000	0.646595	0.744266
268.0000	0.641924	0.745129
267.9000	0.645267	0.745995
267.8000	0.647547	0.746881
267.7000	0.652551	0.747784
267.6000	0.657425	0.748687
267.5000	0.668675	0.749594
267.4000	0.670263	0.750517
267.3000	0.665485	0.751426
267.2000	0.65347	0.752348
267.1000	0.642941	0.753292
267.0000	0.643679	0.754253
266.9000	0.646064	0.755225
266.8000	0.651647	0.756214
266.7000	0.65465	0.757199
266.6000	0.657519	0.758194
266.5000	0.656442	0.759191
266.4000	0.653643	0.760209
266.3000	0.648934	0.76123
266.2000	0.653734	0.762257
266.1000	0.656467	0.76328
266.0000	0.652367	0.764302
265.9000	0.640269	0.765317
265.8000	0.624438	0.766328
265.7000	0.610454	0.767336
265.6000	0.596897	0.768364
265.5000	0.586495	0.769415
265.4000	0.577936	0.770484
265.3000	0.568191	0.771547
265.2000	0.562044	0.772614
265.1000	0.554747	0.773684
265.0000	0.551736	0.774777
264.9000	0.550372	0.775863
264.8000	0.551887	0.776965
264.7000	0.549672	0.778067
264.6000	0.540635	0.779155
264.5000	0.533118	0.780275
264.4000	0.532164	0.781418
264.3000	0.535955	0.782554
264.2000	0.532874	0.783686
264.1000	0.524811	0.784802
264.0000	0.511671	0.785921
263.9000	0.50163	0.787054
263.8000	0.50067	0.788181
263.7000	0.494884	0.789301
263.6000	0.489749	0.790439
263.5000	0.487199	0.791586
263.4000	0.493933	0.792745
263.3000	0.507153	0.793901
263.2000	0.522843	0.795079
263.1000	0.528496	0.796237
263.0000	0.532343	0.797389
262.9000	0.532554	0.798561
262.8000	0.525354	0.799728
262.7000	0.523514	0.800897
262.6000	0.524647	0.802083
262.5000	0.532423	0.803266
262.4000	0.540196	0.804439
262.3000	0.550665	0.805613
262.2000	0.565744	0.806793
262.1000	0.578423	0.807978
262.0000	0.594533	0.809176
261.9000	0.604114	0.810347
261.8000	0.604666	0.811506
261.7000	0.594025	0.812657
261.6000	0.58442	0.813812
261.5000	0.569231	0.814973
261.4000	0.557341	0.816148
261.3000	0.55264	0.817315
261.2000	0.552819	0.818476
261.1000	0.550669	0.81963
261.0000	0.548438	0.820774
260.9000	0.54616	0.821931
260.8000	0.544695	0.823088
260.7000	0.550738	0.824251
260.6000	0.55729	0.825407
260.5000	0.560921	0.826538
260.4000	0.557165	0.827674
260.3000	0.550681	0.828798
260.2000	0.542747	0.829917
260.1000	0.539803	0.83103
260.0000	0.534331	0.832148
259.9000	0.532128	0.833257
259.8000	0.531676	0.834356
259.7000	0.532526	0.835442
259.6000	0.53171	0.836535
259.5000	0.522941	0.837618
259.4000	0.5251	0.838699
259.3000	0.531429	0.839784
259.2000	0.54265	0.840859
259.1000	0.552069	0.841943
259.0000	0.564332	0.843038
258.9000	0.573562	0.844099
258.8000	0.575084	0.845137
258.7000	0.574662	0.846165
258.6000	0.57072	0.847198
258.5000	0.56087	0.848221
258.4000	0.549925	0.849237
258.3000	0.539341	0.85024
258.2000	0.528796	0.851243
258.1000	0.514261	0.852232
258.0000	0.508865	0.853219
257.9000	0.509529	0.854225
257.8000	0.506075	0.855191
257.7000	0.496036	0.856153
257.6000	0.493528	0.857114
257.5000	0.497227	0.858095
257.4000	0.504129	0.85907
257.3000	0.51544	0.860037
257.2000	0.523632	0.861
257.1000	0.529453	0.861961
257.0000	0.539392	0.862894
256.9000	0.547423	0.863841
256.8000	0.558063	0.864769
256.7000	0.567201	0.865692
256.6000	0.572886	0.8666
256.5000	0.577979	0.867486
256.4000	0.583709	0.86839
256.3000	0.586688	0.869275
256.2000	0.58839	0.870145
256.1000	0.588333	0.871005
256.0000	0.581922	0.871862
255.9000	0.569963	0.872688
255.8000	0.55339	0.873513
255.7000	0.539807	0.874322
255.6000	0.527787	0.875129
255.5000	0.515527	0.875927
255.4000	0.510109	0.876725
255.3000	0.50307	0.877506
255.2000	0.493486	0.878285
255.1000	0.490075	0.879061
255.0000	0.485827	0.879822
254.9000	0.490686	0.880589
254.8000	0.497125	0.881351
254.7000	0.498366	0.882099
254.6000	0.495811	0.882847
254.5000	0.490006	0.883586
254.4000	0.492127	0.88433
254.3000	0.49434	0.885077
254.2000	0.494074	0.885802
254.1000	0.495435	0.886519
254.0000	0.495732	0.887225
253.9000	0.498171	0.887935
253.8000	0.50447	0.888652
253.7000	0.513574	0.889365
253.6000	0.519672	0.890058
253.5000	0.525279	0.890755
253.4000	0.528285	0.891439
253.3000	0.526926	0.892122
253.2000	0.521174	0.892804
253.1000	0.518823	0.893476
253.0000	0.516081	0.894154
252.9000	0.520266	0.894821
252.8000	0.526527	0.895494
252.7000	0.523746	0.896164
252.6000	0.522	0.896832
252.5000	0.523809	0.897495
252.4000	0.527903	0.898149
252.3000	0.530805	0.898791
252.2000	0.53494	0.899442
252.1000	0.537736	0.900086
252.0000	0.534961	0.900732
251.9000	0.531649	0.90136
251.8000	0.537732	0.901986
251.7000	0.543205	0.902613
251.6000	0.543727	0.903226
251.5000	0.541502	0.903837
251.4000	0.54312	0.904452
251.3000	0.535078	0.905055
251.2000	0.523006	0.905652
251.1000	0.513173	0.906257
251.0000	0.506352	0.906852
250.9000	0.489836	0.907423
250.8000	0.476987	0.908
250.7000	0.475682	0.908574
250.6000	0.476497	0.909146
250.5000	0.483369	0.909726
250.4000	0.483361	0.91031
250.3000	0.484518	0.910893
250.2000	0.48297	0.911472
250.1000	0.479216	0.912048
250.0000	0.469953	0.912635
249.9000	0.462249	0.91322
249.8000	0.459239	0.913819
249.7000	0.458457	0.914409
249.6000	0.45904	0.915014
249.5000	0.454964	0.915608
249.4000	0.446489	0.91621
249.3000	0.445291	0.916815
249.2000	0.456227	0.917437
249.1000	0.466531	0.918058
249.0000	0.470176	0.918677
248.9000	0.46591	0.919297
248.8000	0.459149	0.919915
248.7000	0.450464	0.92052
248.6000	0.44415	0.921147
248.5000	0.447832	0.921772
248.4000	0.451462	0.922405
248.3000	0.456733	0.92304
248.2000	0.459588	0.923666
248.1000	0.465485	0.924297
248.0000	0.474798	0.924925
247.9000	0.483712	0.92556
247.8000	0.492778	0.926188
247.7000	0.490886	0.926812
247.6000	0.497647	0.927447
247.5000	0.501899	0.928098
247.4000	0.507844	0.928762
247.3000	0.508956	0.929428
247.2000	0.51264	0.930088
247.1000	0.513265	0.930744
247.0000	0.503117	0.931405
246.9000	0.493151	0.93208
246.8000	0.48153	0.932741
246.7000	0.479877	0.93343
246.6000	0.476053	0.934104
246.5000	0.472261	0.934783
246.4000	0.468534	0.935476
246.3000	0.467358	0.936179
246.2000	0.470802	0.936893
246.1000	0.470146	0.937596
246.0000	0.47021	0.938312
245.9000	0.471377	0.939024
245.8000	0.46374	0.939745
245.7000	0.46334	0.940475
245.6000	0.463084	0.941206
245.5000	0.463951	0.941957
245.4000	0.466109	0.942718
245.3000	0.46601	0.943483
245.2000	0.460504	0.944257
245.1000	0.453013	0.945047
245.0000	0.45507	0.945836
244.9000	0.46324	0.94665
244.8000	0.475157	0.947476
244.7000	0.478953	0.948298
244.6000	0.490526	0.949138
244.5000	0.498911	0.949992
244.4000	0.502255	0.950848
244.3000	0.511892	0.951727
244.2000	0.518798	0.952622
244.1000	0.522315	0.953526
244.0000	0.51968	0.954436
243.9000	0.523217	0.95537
243.8000	0.521639	0.956315
243.7000	0.525634	0.957264
243.6000	0.524095	0.958228
243.5000	0.519816	0.959208
243.4000	0.518669	0.960199
243.3000	0.527439	0.961211
243.2000	0.540393	0.962242
243.1000	0.552609	0.963278
243.0000	0.561002	0.964332
242.9000	0.562431	0.965394
242.8000	0.567237	0.966477
242.7000	0.574908	0.967577
242.6000	0.570748	0.968691
242.5000	0.556798	0.969819
242.4000	0.534222	0.970943
242.3000	0.512709	0.972089
242.2000	0.496665	0.973263
242.1000	0.48972	0.974473
242.0000	0.484646	0.975696
241.9000	0.47917	0.976928
241.8000	0.471713	0.978176
241.7000	0.471882	0.979442
241.6000	0.46312	0.980736
241.5000	0.453059	0.982046
241.4000	0.444593	0.98337
241.3000	0.431347	0.984708
241.2000	0.418425	0.986068
241.1000	0.411855	0.987457
241.0000	0.411407	0.988871
240.9000	0.403468	0.990301
240.8000	0.398512	0.991751
240.7000	0.387118	0.99321
240.6000	0.372679	0.994696
240.5000	0.353966	0.996199
240.4000	0.340074	0.997748
240.3000	0.336924	0.999314
240.2000	0.331223	1.00091
240.1000	0.318684	1.00253
240.0000	0.309223	1.00418
239.9000	0.304502	1.00585
239.8000	0.300551	1.00756
239.7000	0.294727	1.00928
239.6000	0.282497	1.01102
239.5000	0.264553	1.01272
239.4000	0.249188	1.01426
239.3000	0.232456	1.01582
239.2000	0.211984	1.0174
239.1000	0.195373	1.01901
239.0000	0.183977	1.02066
238.9000	0.17575	1.02233
238.8000	0.174073	1.02402
238.7000	0.172189	1.02574
238.6000	0.175914	1.02748
238.5000	0.187109	1.02925
238.4000	0.201524	1.03105
238.3000	0.211817	1.03288
238.2000	0.218771	1.03474
238.1000	0.218567	1.03662
238.0000	0.216591	1.03852
237.9000	0.212058	1.04045
237.8000	0.212327	1.04239
237.7000	0.214373	1.04437
237.6000	0.217934	1.04639
237.5000	0.225436	1.04844
237.4000	0.232652	1.05051
237.3000	0.237309	1.05262
237.2000	0.237517	1.05475
237.1000	0.23624	1.05691
237.0000	0.237043	1.05911
236.9000	0.240142	1.06134
236.8000	0.242524	1.0636
236.7000	0.236572	1.06589
236.6000	0.227112	1.06821
236.5000	0.211874	1.07057
236.4000	0.199615	1.07296
236.3000	0.191976	1.07537
236.2000	0.200583	1.07784
236.1000	0.207426	1.08034
236.0000	0.212979	1.08287
235.9000	0.221166	1.08543
235.8000	0.234434	1.08803
235.7000	0.257925	1.09068
235.6000	0.278572	1.09336
235.5000	0.288803	1.09608
235.4000	0.287396	1.09883
235.3000	0.280259	1.10161
235.2000	0.267072	1.10443
235.1000	0.251574	1.10729
235.0000	0.242535	1.11019
234.9000	0.242629	1.11314
234.8000	0.23848	1.11612
234.7000	0.24001	1.11916
234.6000	0.241373	1.12225
234.5000	0.253244	1.1254
234.4000	0.260639	1.12859
234.3000	0.263217	1.13182
234.2000	0.264593	1.13511
234.1000	0.264828	1.13843
234.0000	0.282473	1.14183
233.9000	0.307083	1.14528
233.8000	0.326728	1.14878
233.7000	0.344387	1.15231
233.6000	0.359703	1.15588
233.5000	0.374987	1.15951
233.4000	0.393969	1.16319
233.3000	0.403475	1.16692
233.2000	0.412515	1.17071
233.1000	0.423819	1.17455
233.0000	0.43151	1.17845
232.9000	0.431933	1.18239
232.8000	0.433384	1.1864
232.7000	0.447542	1.19048
232.6000	0.461645	1.19464
232.5000	0.474255	1.19888
232.4000	0.482584	1.20319
232.3000	0.484367	1.20756
232.2000	0.477123	1.212
232.1000	0.468369	1.21652
232.0000	0.466991	1.22112
231.9000	0.462692	1.2258
231.8000	0.451635	1.23057
231.7000	0.435388	1.23541
231.6000	0.431353	1.24034
231.5000	0.43821	1.24538
231.4000	0.445774	1.25049
231.3000	0.462263	1.25569
231.2000	0.47521	1.26099
231.1000	0.476416	1.26637
231.0000	0.473936	1.27185
230.9000	0.466297	1.27742
230.8000	0.456601	1.28308
230.7000	0.444841	1.28882
230.6000	0.431303	1.29466
230.5000	0.420505	1.30061
230.4000	0.41193	1.30665
230.3000	0.394225	1.31279
230.2000	0.368964	1.31904
230.1000	0.346066	1.32539
230.0000	0.331742	1.33185
229.9000	0.307622	1.33841
229.8000	0.28872	1.34508
229.7000	0.290537	1.35189
229.6000	0.289585	1.35884
229.5000	0.276413	1.36589
229.4000	0.268293	1.37306
229.3000	0.255913	1.38035
229.2000	0.251883	1.38778
229.1000	0.245329	1.39535
229.0000	0.238554	1.40304
228.9000	0.243486	1.41086
228.8000	0.262464	1.41882
228.7000	0.277861	1.42691
228.6000	0.287866	1.43514
228.5000	0.317451	1.44353
228.4000	0.343407	1.45208
228.3000	0.371011	1.46078
228.2000	0.400953	1.46964
228.1000	0.434654	1.47866
228.0000	0.469928	1.48785
227.9000	0.500639	1.49721
227.8000	0.534594	1.50674
227.7000	0.567588	1.51643
227.6000	0.579178	1.52628
227.5000	0.595562	1.53632
227.4000	0.589371	1.54653
227.3000	0.565055	1.55691
227.2000	0.553399	1.56749
227.1000	0.572243	1.57825
227.0000	0.597897	1.58923
226.9000	0.619487	1.60039
226.8000	0.639282	1.61175
226.7000	0.677365	1.62332
226.6000	0.703798	1.63509
226.5000	0.733382	1.64706
226.4000	0.775829	1.65927
226.3000	0.819279	1.67168
226.2000	0.8762	1.68431
226.1000	0.927875	1.69714
226.0000	0.954566	1.71017
225.9000	0.963494	1.72341
225.8000	0.969166	1.73686
225.7000	0.982573	1.75052
225.6000	0.987649	1.7644
225.5000	0.981084	1.7785
225.4000	0.967928	1.79285
225.3000	0.977918	1.80744
225.2000	0.963404	1.82224
225.1000	0.923319	1.83729
225.0000	0.922677	1.85259
224.9000	0.917341	1.86812
224.8000	0.91799	1.8839
224.7000	0.891933	1.89989
224.6000	0.806953	1.91606
224.5000	0.741562	1.93249
224.4000	0.706819	1.9492
224.3000	0.679619	1.96618
224.2000	0.682263	1.98343
224.1000	0.764723	2.00099
224.0000	0.888877	2.01884
223.9000	0.989315	2.03694
223.8000	1.05744	2.05529
223.7000	1.10746	2.0739
223.6000	1.10777	2.09278
223.5000	1.10305	2.11194
223.4000	1.08064	2.13137
223.3000	1.01712	2.15107
223.2000	0.960341	2.17105
223.1000	0.908998	2.19132
223.0000	0.827648	2.21185
222.9000	0.684671	2.23262
222.8000	0.545272	2.25372
222.7000	0.484783	2.27519
222.6000	0.479821	2.29705
222.5000	0.544194	2.31919
222.4000	0.686591	2.34162
222.3000	0.832699	2.36431
222.2000	0.948944	2.38731
222.1000	1.02078	2.41054
222.0000	1.1177	2.43406
221.9000	1.21126	2.45783
221.8000	1.24859	2.48182
221.7000	1.12367	2.50537
221.6000	1.0271	2.52853
221.5000	0.945346	2.55207
221.4000	0.839945	2.57597
221.3000	0.682171	2.60019
221.2000	0.496368	2.62471
221.1000	0.311245	2.64959
221.0000	0.165091	2.67485
220.9000	0.0370487	2.70043
220.8000	0.0731094	2.7264
220.7000	0.183851	2.7527
220.6000	0.121494	2.77922
220.5000	0.0391377	2.80602
220.4000	0.00448677	2.83309
220.3000	0.0562386	2.86044
220.2000	0.0403537	2.88797
220.1000	-0.0996546	2.91561
220.0000	-0.244766	2.9434
219.9000	-0.154415	2.9714
219.8000	-0.0416587	2.99951
219.7000	0.0611614	3.02771
219.6000	0.135704	3.05597
219.5000	0.211536	3.08423
219.4000	0.30755	3.11249
219.3000	0.422792	3.14075
219.2000	0.530417	3.16895
219.1000	0.395392	3.19696
219.0000	0.322447	3.22488
218.9000	0.180895	3.25258
218.8000	0.0450826	3.2801
218.7000	-0.0978098	3.30742
218.6000	-0.253289	3.33454
218.5000	-0.301208	3.36148
218.4000	-0.271775	3.38825
218.3000	-0.255622	3.4147
218.2000	-0.122896	3.44093
218.1000	0.0115976	3.46685
218.0000	0.195089	3.49254
217.9000	0.404094	3.51789
217.8000	0.591401	3.54287
217.7000	0.771966	3.56748
217.6000	0.922858	3.58839
217.5000	0.880719	3.60894
217.4000	0.67313	3.62924
217.3000	0.400437	3.6493
217.2000	0.162517	3.66914
217.1000	-0.0556489	3.68873
217.0000	-0.169627	3.70817
216.9000	-0.007864	3.72743
216.8000	0.168121	3.74643
216.7000	0.35782	3.76517
216.6000	0.598752	3.7836
216.5000	0.810267	3.8018
216.4000	0.986782	3.81969
216.3000	1.04421	3.83722
216.2000	1.29561	3.85448
216.1000	1.4096	3.87139
216.0000	1.36269	3.88785
215.9000	1.1876	3.90389
215.8000	1.00226	3.91965
215.7000	0.743355	3.935
215.6000	0.677868	3.95009
215.5000	0.705916	3.96483
215.4000	0.697468	3.97922
215.3000	0.497901	3.99314
215.2000	0.43339	4.00672
215.1000	0.349919	4.0199
215.0000	0.337068	4.03267
214.9000	0.254377	4.04499
214.8000	0.181824	4.05692
214.7000	0.0951544	4.06843
214.6000	0.0819841	4.07953
214.5000	0.338241	4.09038
214.4000	0.398938	4.10076
214.3000	0.670259	4.11076
214.2000	0.65874	4.12028
214.1000	0.697411	4.12937
214.0000	0.787955	4.13812
213.9000	0.971083	4.1465
213.8000	0.914333	4.15441
213.7000	0.754747	4.16183
213.6000	0.585492	4.16891
213.5000	0.663428	4.17573
213.4000	0.938538	4.18228
213.3000	1.11535	4.18845
213.2000	1.05099	4.19423
213.1000	0.750996	4.19962
213.0000	0.451001	4.20466
212.9000	0.208581	4.20938
212.8000	-0.091414	4.21385
212.7000	-0.364238	4.21813
212.6000	-0.64649	4.22214
212.5000	-0.833466	4.22593
212.4000	-0.913785	4.22954
212.3000	-0.943246	4.23304
212.2000	-0.943246	4.23638
212.1000	-0.925686	4.23962
212.0000	-0.83753	4.24276
211.9000	-0.847424	4.24574
211.8000	-0.931641	4.24849
211.7000	-1.01088	4.25118
211.6000	-0.980214	4.25391
211.5000	-1.1162	4.25651
211.4000	-1.41619	4.25894
211.3000	-1.68263	4.26132
211.2000	-1.98262	4.26367
211.1000	-2.28262	4.26591
211.0000	-2.58261	4.26807
210.9000	-2.79151	4.27035
210.8000	-2.9623	4.27252
210.7000	-2.9623	4.2747
210.6000	-2.9623	4.2769
210.5000	-2.9623	4.27913
210.4000	-2.97128	4.28135
210.3000	-3.13601	4.28345
210.2000	-3.436	4.28557
210.1000	-3.736	4.28775
210.0000	-3.88405	4.29007
209.9000	-3.88405	4.29212
209.8000	-3.99539	4.29416
209.7000	-4.18085	4.29628
209.6000	-4.3827	4.29652
209.5000	-4.62184	4.2909
209.4000	-4.75712	4.29212
209.3000	-4.75712	4.29491
209.2000	-4.72805	4.29793
209.1000	-4.59233	4.29286
209.0000	-4.47472	4.27361
208.9000	-4.61851	4.26753
208.8000	-4.8547	4.27131
208.7000	-4.86285	4.2773
208.6000	-4.95604	4.28368
208.5000	-5.13749	4.29013
208.4000	-5.17153	4.29671
208.3000	-5.17613	4.30336
208.2000	-5.17613	4.31005
208.1000	-4.91482	4.3169
208.0000	-4.61482	4.32386
207.9000	-4.37367	4.33087
207.8000	-4.34301	4.33765
207.7000	-4.17547	4.34461
207.6000	-4.19674	4.35149
207.5000	-4.02356	4.3584
207.4000	-4.01079	4.3653
207.3000	-4.01079	4.37215
207.2000	-3.90433	4.37903
207.1000	-3.68449	4.38598
207.0000	-3.54608	4.39302
206.9000	-3.38738	4.39993
206.8000	-3.3708	4.40676
206.7000	-3.36105	4.40967
206.6000	-3.35672	4.39631
206.5000	-3.19269	4.3901
206.4000	-2.94903	4.39707
206.3000	-2.94903	4.40743
206.2000	-2.83922	4.41852
206.1000	-2.54042	4.4297
206.0000	-2.24043	4.44083
205.9000	-1.94043	4.45198
205.8000	-1.64044	4.46308
205.7000	-1.34044	4.4741
205.6000	-1.04045	4.48518
205.5000	-0.74045	4.49635
205.4000	-0.605045	4.50733
205.3000	-0.424704	4.51815
205.2000	-0.424242	4.52888
205.1000	-0.436279	4.5397
205.0000	-0.58066	4.55046
204.9000	-0.846049	4.56111
204.8000	-0.778522	4.57198
204.7000	-0.569621	4.58293
204.6000	-0.57133	4.59383
204.5000	-0.271335	4.60478
204.4000	0.0286609	4.61589
204.3000	0.328656	4.62697
204.2000	0.423418	4.63785
204.1000	0.423418	4.64882
204.0000	0.616556	4.65995
203.9000	0.851903	4.67088
203.8000	1.1519	4.68185
203.7000	1.32191	4.6928
203.6000	1.32191	4.70362
203.5000	1.50503	4.71456
203.4000	1.62347	4.72543
203.3000	1.54458	4.73627
203.2000	1.53371	4.74734
203.1000	1.73253	4.75833
203.0000	2.03253	4.76925
202.9000	2.33252	4.78543
202.8000	2.63252	4.80145
202.7000	2.93251	4.81249
202.6000	3.23251	4.82268
202.5000	3.43026	4.8337
202.4000	3.53957	4.85728
202.3000	3.66533	4.88846
202.2000	3.8	4.90287
202.1000	3.95909	4.91111
202.0000	4.16135	4.91793
201.9000	4.45755	4.92455
201.8000	4.75755	4.93111
201.7000	4.95016	4.93763
201.6000	4.95016	4.94406
201.5000	4.87971	4.95047
201.4000	4.58885	4.9566
201.3000	4.28885	4.96277
201.2000	3.98886	4.96891
201.1000	3.68886	4.97479
201.0000	3.38887	4.98073
200.9000	3.15917	4.98683
200.8000	2.85917	4.99267
200.7000	2.55917	4.99851
200.6000	2.25918	5.00434
200.5000	2.19716	5.01012
200.4000	2.36967	5.01597
200.3000	2.40784	5.02204
200.2000	2.45198	5.02795
200.1000	2.41762	5.03389
200.0000	2.41762	5.04856

##### Extended Information
[Comments]
Sample name	231114_20mM_HEPES_10mm-cuvette-abs
Comment	20mM_HEPES_25ugmL_DNA
User
Division
Company	uvic

[Detailed Information]
Creation date	11/14/2023 5:13 PM

Data array type	Linear data array * 2
Horizontal axis	Wavelength [nm]
Vertical axis(1)	CD [mdeg]
Vertical axis(2)	Abs
Start	350 nm
End	200 nm
Data interval	0.1 nm
Data points	1501    

[Measurement Information]
Instrument Name	JascoICD
Model Name	J-810
Serial No.	A002460750

Photometric Mode	CD, Abs
Measure Range	350 - 200 nm
Data pitch	0.1 nm
Sensitivity	High
D.I.T.	2 sec
Band width	1.00 nm
Start Mode	Immediately
Scanning Speed	200 nm/min
Baseline Correction	None
Shutter Control	Auto
PMT Voltage	Auto
Solvent	Water
Concentration	0.25 (w/v)%

